Quasi static measurement routine
Tip parameters (shape,radius, material...) 
08.09.2022

Piezo position[nm]	MEMS displ.[nm]	Time[ms]	Cap [pf]	Temp [°C]	Rh [%]
eoh
1,288003	-0,242984	0,202	-0,076787	22,500000	54,390000
1,291047	-0,195544	0,352	-0,076767	22,500000	54,390000
1,294050	-0,141162	0,502	-0,076744	22,500000	54,390000
1,297041	-0,227942	0,652	-0,076780	22,500000	54,390000
1,300077	0,016199	0,802	-0,076677	22,500000	54,390000
1,303024	-0,055539	0,952	-0,076708	22,500000	54,390000
1,306088	0,109921	1,102	-0,076638	22,500000	54,390000
1,309112	-0,109921	1,252	-0,076730	22,500000	54,390000
1,312032	-0,093722	1,402	-0,076724	22,500000	54,390000
1,315112	-0,305465	1,552	-0,076813	22,480000	54,345000
1,318077	-0,305465	1,703	-0,076813	22,480000	54,345000
1,321044	-0,211743	1,853	-0,076773	22,480000	54,345000
1,324003	-0,219842	2,004	-0,076777	22,480000	54,345000
1,327096	-0,124963	2,154	-0,076737	22,480000	54,345000
1,330047	-0,078680	2,305	-0,076717	22,480000	54,345000
1,333092	-0,116864	2,455	-0,076733	22,480000	54,345000
1,336087	0,093722	2,605	-0,076645	22,480000	54,345000
1,339108	-0,093722	2,755	-0,076724	22,480000	54,345000
1,342097	-0,141162	2,905	-0,076744	22,480000	54,345000
1,345049	-0,251083	3,056	-0,076790	22,480000	54,345000
1,348033	-0,282324	3,207	-0,076803	22,480000	54,345000
1,351077	-0,274224	3,357	-0,076800	22,480000	54,345000
1,354083	-0,282324	3,508	-0,076803	22,480000	54,345000
1,357112	-0,227942	3,658	-0,076780	22,480000	54,345000
1,360087	0,156204	3,808	-0,076618	22,480000	54,345000
1,363058	0,016199	3,958	-0,076677	22,480000	54,345000
1,366062	-0,313564	4,109	-0,076816	22,480000	54,345000
1,369090	-0,227942	4,260	-0,076780	22,480000	54,345000
1,372108	-0,109921	4,411	-0,076730	22,480000	54,345000
1,375050	-0,211743	4,561	-0,076773	22,480000	54,345000
1,378060	-0,251083	4,711	-0,076790	22,480000	54,345000
1,381110	-0,047440	4,862	-0,076704	22,480000	54,345000
1,384089	-0,297366	5,012	-0,076810	22,480000	54,345000
1,387109	-0,156204	5,162	-0,076750	22,480000	54,345000
1,390113	-0,172403	5,312	-0,076757	22,480000	54,345000
1,393130	-0,376046	5,462	-0,076843	22,480000	54,345000
1,396033	-0,282324	5,612	-0,076803	22,490000	54,345000
1,399046	-0,093722	5,762	-0,076724	22,490000	54,345000
1,402050	-0,180502	5,912	-0,076760	22,490000	54,345000
1,405043	-0,141162	6,062	-0,076744	22,490000	54,345000
1,408084	-0,085623	6,212	-0,076720	22,490000	54,345000
1,411077	-0,242984	6,362	-0,076787	22,490000	54,345000
1,414059	-0,085623	6,512	-0,076720	22,490000	54,345000
1,417069	-0,023141	6,662	-0,076694	22,490000	54,345000
1,420053	-0,016199	6,813	-0,076691	22,490000	54,345000
1,423050	-0,195544	6,963	-0,076767	22,490000	54,345000
1,425998	-0,219842	7,113	-0,076777	22,490000	54,345000
1,429073	-0,116864	7,263	-0,076733	22,490000	54,345000
1,431998	-0,039340	7,414	-0,076701	22,490000	54,345000
1,435046	-0,180502	7,564	-0,076760	22,500000	54,350000
1,438079	-0,344805	7,714	-0,076830	22,500000	54,350000
1,441079	-0,407287	7,865	-0,076856	22,500000	54,350000
1,444125	-0,336706	8,015	-0,076826	22,500000	54,350000
1,447053	-0,078680	8,165	-0,076717	22,500000	54,350000
1,450057	-0,149261	8,315	-0,076747	22,500000	54,350000
1,453059	-0,211743	8,465	-0,076773	22,500000	54,350000
1,456121	-0,055539	8,615	-0,076708	22,500000	54,350000
1,459053	-0,211743	8,765	-0,076773	22,500000	54,350000
1,462072	-0,321664	8,916	-0,076820	22,500000	54,350000
1,465129	-0,289266	9,066	-0,076806	22,500000	54,350000
1,468062	-0,227942	9,216	-0,076780	22,500000	54,350000
1,471078	-0,085623	9,367	-0,076720	22,500000	54,350000
1,474054	-0,141162	9,517	-0,076744	22,500000	54,350000
1,477046	-0,251083	9,667	-0,076790	22,500000	54,365000
1,480068	-0,282324	9,818	-0,076803	22,500000	54,365000
1,483125	-0,211743	9,968	-0,076773	22,500000	54,365000
1,486086	-0,116864	10,118	-0,076733	22,500000	54,365000
1,489055	-0,251083	10,268	-0,076790	22,500000	54,365000
1,492078	-0,149261	10,418	-0,076747	22,500000	54,365000
1,495095	-0,227942	10,568	-0,076780	22,500000	54,365000
1,498049	-0,188602	10,718	-0,076764	22,500000	54,365000
1,501088	0,016199	10,868	-0,076677	22,500000	54,365000
1,504059	-0,251083	11,018	-0,076790	22,500000	54,365000
1,507054	-0,023141	11,168	-0,076694	22,500000	54,365000
1,510139	-0,172403	11,318	-0,076757	22,500000	54,365000
1,513076	-0,407287	11,468	-0,076856	22,500000	54,365000
1,516077	-0,085623	11,618	-0,076720	22,490000	54,385000
1,519125	-0,093722	11,768	-0,076724	22,490000	54,385000
1,522075	-0,203643	11,918	-0,076770	22,490000	54,385000
1,525040	-0,109921	12,068	-0,076730	22,490000	54,385000
1,528091	-0,415386	12,218	-0,076859	22,490000	54,385000
1,531081	-0,211743	12,368	-0,076773	22,490000	54,385000
1,534160	-0,266125	12,518	-0,076796	22,490000	54,385000
1,537058	-0,305465	12,668	-0,076813	22,490000	54,385000
1,540105	-0,219842	12,818	-0,076777	22,490000	54,385000
1,543029	-0,211743	12,969	-0,076773	22,490000	54,385000
1,546090	-0,242984	13,119	-0,076787	22,490000	54,385000
1,549078	-0,289266	13,270	-0,076806	22,490000	54,385000
1,552061	-0,297366	13,420	-0,076810	22,490000	54,385000
1,555116	-0,109921	13,571	-0,076730	22,480000	54,375000
1,558069	-0,156204	13,721	-0,076750	22,480000	54,375000
1,561007	-0,305465	13,871	-0,076813	22,480000	54,375000
1,564083	-0,180502	14,021	-0,076760	22,480000	54,375000
1,567070	-0,392245	14,172	-0,076850	22,480000	54,375000
1,570040	-0,195544	14,322	-0,076767	22,480000	54,375000
1,573079	0,047440	14,472	-0,076664	22,480000	54,375000
1,576070	-0,328606	14,622	-0,076823	22,480000	54,375000
1,579093	-0,274224	14,772	-0,076800	22,480000	54,375000
1,582064	-0,195544	14,923	-0,076767	22,480000	54,375000
1,585073	-0,164303	15,073	-0,076753	22,480000	54,375000
1,588058	-0,282324	15,223	-0,076803	22,480000	54,375000
1,591047	-0,062481	15,374	-0,076710	22,480000	54,375000
1,594099	-0,251083	15,524	-0,076790	22,480000	54,375000
1,597005	-0,062481	15,674	-0,076710	22,500000	54,350000
1,600047	-0,321664	15,824	-0,076820	22,500000	54,350000
1,603080	-0,133062	15,975	-0,076740	22,500000	54,350000
1,606077	-0,078680	16,125	-0,076717	22,500000	54,350000
1,609104	-0,274224	16,276	-0,076800	22,500000	54,350000
1,612104	-0,289266	16,426	-0,076806	22,500000	54,350000
1,615050	-0,203643	16,576	-0,076770	22,500000	54,350000
1,618092	-0,141162	16,726	-0,076744	22,500000	54,350000
1,621034	-0,203643	16,876	-0,076770	22,500000	54,350000
1,624033	-0,399187	17,027	-0,076853	22,500000	54,350000
1,627093	-0,062481	17,178	-0,076710	22,500000	54,350000
1,630078	-0,305465	17,328	-0,076813	22,500000	54,350000
1,633101	-0,055539	17,478	-0,076708	22,500000	54,350000
1,636087	-0,423486	17,628	-0,076863	22,500000	54,335000
1,639075	-0,242984	17,778	-0,076787	22,500000	54,335000
1,642081	-0,259182	17,929	-0,076793	22,500000	54,335000
1,645029	-0,242984	18,080	-0,076787	22,500000	54,335000
1,648055	-0,141162	18,230	-0,076744	22,500000	54,335000
1,651045	-0,266125	18,381	-0,076796	22,500000	54,335000
1,654042	-0,070581	18,531	-0,076714	22,500000	54,335000
1,657055	-0,070581	18,681	-0,076714	22,500000	54,335000
1,660027	-0,141162	18,831	-0,076744	22,500000	54,335000
1,663097	-0,188602	18,981	-0,076764	22,500000	54,335000
1,666062	-0,227942	19,131	-0,076780	22,500000	54,335000
1,669100	-0,149261	19,281	-0,076747	22,500000	54,335000
1,672073	-0,234884	19,431	-0,076783	22,500000	54,335000
1,675046	-0,328606	19,581	-0,076823	22,480000	54,375000
1,678048	-0,266125	19,731	-0,076796	22,480000	54,375000
1,681039	-0,227942	19,881	-0,076780	22,480000	54,375000
1,684074	-0,188602	20,031	-0,076764	22,480000	54,375000
1,687104	-0,211743	20,182	-0,076773	22,480000	54,375000
1,690077	-0,282324	20,333	-0,076803	22,480000	54,375000
1,693055	-0,124963	20,484	-0,076737	22,480000	54,375000
1,696066	-0,446627	20,634	-0,076873	22,480000	54,375000
1,699073	-0,321664	20,784	-0,076820	22,480000	54,375000
1,702108	-0,509108	20,934	-0,076899	22,480000	54,375000
1,705076	-0,282324	21,084	-0,076803	22,480000	54,375000
1,708029	-0,266125	21,235	-0,076796	22,480000	54,375000
1,711116	-0,282324	21,385	-0,076803	22,480000	54,375000
1,714056	-0,242984	21,536	-0,076787	22,480000	54,375000
1,717006	-0,305465	21,686	-0,076813	22,480000	54,375000
1,720025	-0,352905	21,836	-0,076833	22,480000	54,375000
1,723049	0,109921	21,986	-0,076638	22,480000	54,375000
1,726098	-0,156204	22,137	-0,076750	22,480000	54,375000
1,728988	-0,470925	22,287	-0,076883	22,480000	54,375000
1,732028	-0,361004	22,437	-0,076836	22,480000	54,375000
1,735086	-0,289266	22,588	-0,076806	22,480000	54,375000
1,738079	-0,361004	22,739	-0,076836	22,480000	54,375000
1,741070	-0,289266	22,890	-0,076806	22,480000	54,375000
1,744078	-0,376046	23,040	-0,076843	22,480000	54,375000
1,747034	-0,282324	23,191	-0,076803	22,480000	54,375000
1,750045	-0,367947	23,341	-0,076839	22,480000	54,375000
1,753082	-0,384145	23,492	-0,076846	22,480000	54,375000
1,756049	-0,133062	23,642	-0,076740	22,500000	54,390000
1,759046	-0,352905	23,792	-0,076833	22,500000	54,390000
1,762037	-0,376046	23,942	-0,076843	22,500000	54,390000
1,765074	-0,266125	24,092	-0,076796	22,500000	54,390000
1,768053	-0,180502	24,242	-0,076760	22,500000	54,390000
1,771085	-0,446627	24,392	-0,076873	22,500000	54,390000
1,774083	-0,438527	24,544	-0,076869	22,500000	54,390000
1,777051	-0,564648	24,694	-0,076922	22,500000	54,390000
1,780105	-0,259182	24,844	-0,076793	22,500000	54,390000
1,783062	-0,297366	24,994	-0,076810	22,500000	54,390000
1,786056	-0,501009	25,144	-0,076896	22,500000	54,390000
1,789080	-0,188602	25,295	-0,076764	22,500000	54,390000
1,792128	-0,172403	25,445	-0,076757	22,500000	54,390000
1,795014	-0,321664	25,595	-0,076820	22,500000	54,390000
1,798016	-0,571590	25,745	-0,076925	22,500000	54,390000
1,801110	-0,509108	25,895	-0,076899	22,500000	54,390000
1,803998	-0,297366	26,045	-0,076810	22,500000	54,390000
1,807041	-0,282324	26,195	-0,076803	22,500000	54,390000
1,810066	-0,525307	26,346	-0,076906	22,500000	54,390000
1,813075	-0,352905	26,496	-0,076833	22,500000	54,390000
1,816019	-0,494067	26,646	-0,076893	22,500000	54,390000
1,819054	-0,109921	26,796	-0,076730	22,500000	54,390000
1,821987	-0,156204	26,946	-0,076750	22,500000	54,390000
1,825041	-0,392245	27,097	-0,076850	22,500000	54,390000
1,828072	-0,266125	27,248	-0,076796	22,500000	54,390000
1,831042	-0,384145	27,398	-0,076846	22,500000	54,390000
1,833997	-0,525307	27,548	-0,076906	22,500000	54,390000
1,837027	-0,525307	27,698	-0,076906	22,500000	54,405000
1,840027	-0,093722	27,849	-0,076724	22,500000	54,405000
1,843044	-0,367947	27,999	-0,076839	22,500000	54,405000
1,846054	-0,016199	28,149	-0,076691	22,500000	54,405000
1,849116	-0,423486	28,299	-0,076863	22,500000	54,405000
1,852068	-0,328606	28,449	-0,076823	22,500000	54,405000
1,855067	-0,540349	28,600	-0,076912	22,500000	54,405000
1,858035	-0,415386	28,751	-0,076859	22,500000	54,405000
1,861090	-0,603988	28,902	-0,076939	22,500000	54,405000
1,864066	-0,650270	29,052	-0,076958	22,500000	54,405000
1,867029	-0,462826	29,203	-0,076879	22,500000	54,405000
1,870094	-0,485967	29,354	-0,076889	22,500000	54,405000
1,873039	-0,392245	29,504	-0,076850	22,500000	54,405000
1,876029	-0,399187	29,654	-0,076853	22,490000	54,360000
1,879005	-0,367947	29,804	-0,076839	22,490000	54,360000
1,882060	-0,234884	29,955	-0,076783	22,490000	54,360000
1,885060	-0,313564	30,105	-0,076816	22,490000	54,360000
1,888023	-0,532250	30,255	-0,076909	22,490000	54,360000
1,891005	-0,564648	30,406	-0,076922	22,490000	54,360000
1,894046	-0,438527	30,556	-0,076869	22,490000	54,360000
1,897082	-0,399187	30,707	-0,076853	22,490000	54,360000
1,900046	-0,431585	30,858	-0,076866	22,490000	54,360000
1,903111	-0,587789	31,008	-0,076932	22,490000	54,360000
1,906061	-0,814573	31,158	-0,077028	22,490000	54,360000
1,909042	-0,610930	31,308	-0,076942	22,490000	54,360000
1,912074	-0,431585	31,458	-0,076866	22,490000	54,360000
1,915045	-0,743993	31,608	-0,076998	22,480000	54,400000
1,918075	-0,556548	31,758	-0,076919	22,480000	54,400000
1,921092	-0,352905	31,908	-0,076833	22,480000	54,400000
1,923992	-0,454726	32,058	-0,076876	22,480000	54,400000
1,927117	-0,579689	32,208	-0,076929	22,480000	54,400000
1,930051	-0,540349	32,359	-0,076912	22,480000	54,400000
1,933046	-0,704652	32,509	-0,076981	22,480000	54,400000
1,935991	-0,595888	32,660	-0,076936	22,480000	54,400000
1,939047	-0,571590	32,810	-0,076925	22,480000	54,400000
1,942036	-0,556548	32,960	-0,076919	22,480000	54,400000
1,945036	-0,571590	33,110	-0,076925	22,480000	54,400000
1,948083	-0,211743	33,260	-0,076773	22,480000	54,400000
1,951019	-0,737050	33,410	-0,076995	22,480000	54,400000
1,954083	-0,477868	33,560	-0,076886	22,490000	54,375000
1,957078	-0,697710	33,710	-0,076979	22,490000	54,375000
1,960049	-0,501009	33,860	-0,076896	22,490000	54,375000
1,963005	-0,454726	34,010	-0,076876	22,490000	54,375000
1,966077	-0,477868	34,161	-0,076886	22,490000	54,375000
1,968987	-0,556548	34,311	-0,076919	22,490000	54,375000
1,972045	-0,728951	34,461	-0,076992	22,490000	54,375000
1,975020	-0,462826	34,612	-0,076879	22,490000	54,375000
1,978065	-0,830772	34,762	-0,077035	22,490000	54,375000
1,981020	-0,540349	34,912	-0,076912	22,490000	54,375000
1,984100	-0,814573	35,062	-0,077028	22,490000	54,375000
1,987055	-0,697710	35,212	-0,076979	22,490000	54,375000
1,989979	-0,760191	35,362	-0,077005	22,490000	54,375000
1,993041	-0,712752	35,512	-0,076985	22,490000	54,375000
1,996026	-0,807631	35,662	-0,077025	22,500000	54,350000
1,999026	-0,799532	35,813	-0,077021	22,500000	54,350000
2,002061	-0,791432	35,963	-0,077018	22,500000	54,350000
2,005022	-0,674569	36,113	-0,076969	22,500000	54,350000
2,008036	-0,595888	36,264	-0,076936	22,500000	54,350000
2,011026	-0,681511	36,415	-0,076972	22,500000	54,350000
2,014067	-0,532250	36,565	-0,076909	22,500000	54,350000
2,017054	-0,776390	36,715	-0,077012	22,500000	54,350000
2,019997	-0,737050	36,865	-0,076995	22,500000	54,350000
2,023045	-0,603988	37,015	-0,076939	22,500000	54,350000
2,026052	-0,728951	37,165	-0,076992	22,500000	54,350000
2,029061	-0,878212	37,315	-0,077055	22,500000	54,350000
2,032086	-0,799532	37,465	-0,077021	22,500000	54,350000
2,035030	-0,689610	37,615	-0,076975	22,490000	54,375000
2,038015	-0,986976	37,765	-0,077101	22,490000	54,375000
2,041013	-0,916395	37,915	-0,077071	22,490000	54,375000
2,044059	-0,886311	38,065	-0,077058	22,490000	54,375000
2,047013	-0,878212	38,216	-0,077055	22,490000	54,375000
2,050048	-0,737050	38,366	-0,076995	22,490000	54,375000
2,053022	-0,862013	38,516	-0,077048	22,490000	54,375000
2,056062	-0,807631	38,666	-0,077025	22,490000	54,375000
2,059072	-1,167478	38,816	-0,077177	22,490000	54,375000
2,062031	-1,144337	38,966	-0,077167	22,490000	54,375000
2,065012	-0,807631	39,116	-0,077025	22,490000	54,375000
2,068006	-1,152436	39,267	-0,077170	22,490000	54,375000
2,071023	-0,689610	39,417	-0,076975	22,490000	54,375000
2,074001	-1,034416	39,567	-0,077121	22,500000	54,390000
2,077095	-0,971934	39,717	-0,077094	22,500000	54,390000
2,080051	-1,065656	39,868	-0,077134	22,500000	54,390000
2,083070	-0,799532	40,018	-0,077021	22,500000	54,390000
2,086006	-0,886311	40,168	-0,077058	22,500000	54,390000
2,089059	-0,862013	40,319	-0,077048	22,500000	54,390000
2,092102	-0,963835	40,471	-0,077091	22,500000	54,390000
2,095019	-0,940693	40,622	-0,077081	22,500000	54,390000
2,098051	-0,886311	40,773	-0,077058	22,500000	54,390000
2,100992	-1,183677	40,923	-0,077184	22,500000	54,390000
2,104030	-0,948793	41,073	-0,077084	22,500000	54,390000
2,106982	-1,065656	41,223	-0,077134	22,500000	54,390000
2,110017	-1,191777	41,374	-0,077187	22,500000	54,390000
2,113106	-1,081855	41,525	-0,077141	22,500000	54,390000
2,116053	-1,206818	41,676	-0,077193	22,490000	54,400000
2,119009	-1,387320	41,826	-0,077270	22,490000	54,400000
2,122042	-1,301698	41,977	-0,077233	22,490000	54,400000
2,125010	-1,301698	42,128	-0,077233	22,490000	54,400000
2,128002	-1,198719	42,278	-0,077190	22,490000	54,400000
2,131017	-1,152436	42,428	-0,077170	22,490000	54,400000
2,134025	-1,332938	42,578	-0,077247	22,490000	54,400000
2,137024	-1,387320	42,728	-0,077270	22,490000	54,400000
2,140052	-1,246159	42,878	-0,077210	22,490000	54,400000
2,143016	-1,262357	43,029	-0,077217	22,490000	54,400000
2,146035	-1,489142	43,179	-0,077313	22,490000	54,400000
2,149010	-1,379221	43,329	-0,077266	22,490000	54,400000
2,152066	-1,395420	43,479	-0,077273	22,490000	54,400000
2,155030	-1,638403	43,629	-0,077375	22,490000	54,400000
2,158032	-1,590964	43,780	-0,077355	22,490000	54,400000
2,161052	-1,449802	43,931	-0,077296	22,490000	54,400000
2,164068	-1,582864	44,081	-0,077352	22,490000	54,400000
2,167002	-1,779565	44,231	-0,077435	22,490000	54,400000
2,170059	-1,756424	44,381	-0,077425	22,490000	54,400000
2,173041	-2,171810	44,532	-0,077601	22,490000	54,400000
2,176050	-1,661545	44,682	-0,077385	22,490000	54,400000
2,179003	-1,756424	44,833	-0,077425	22,490000	54,400000
2,182027	-1,881387	44,983	-0,077478	22,490000	54,400000
2,185015	-1,935769	45,133	-0,077501	22,490000	54,400000
2,188050	-1,857089	45,283	-0,077468	22,490000	54,400000
2,191031	-2,116271	45,433	-0,077577	22,490000	54,400000
2,194111	-2,452977	45,583	-0,077719	22,480000	54,400000
2,197007	-2,139412	45,734	-0,077587	22,480000	54,400000
2,199985	-2,194951	45,884	-0,077610	22,480000	54,400000
2,203036	-2,367354	46,034	-0,077683	22,480000	54,400000
2,206028	-2,492317	46,184	-0,077736	22,480000	54,400000
2,209009	-2,687861	46,334	-0,077818	22,480000	54,400000
2,212081	-2,461076	46,484	-0,077723	22,480000	54,400000
2,215004	-2,938944	46,634	-0,077924	22,480000	54,400000
2,218008	-2,899604	46,784	-0,077908	22,480000	54,400000
2,221103	-3,096305	46,934	-0,077991	22,480000	54,400000
2,224040	-3,063907	47,085	-0,077977	22,480000	54,400000
2,227056	-3,511691	47,236	-0,078166	22,480000	54,400000
2,230000	-3,111347	47,386	-0,077997	22,480000	54,400000
2,233073	-3,479293	47,536	-0,078152	22,480000	54,400000
2,236041	-3,942119	47,686	-0,078348	22,500000	54,380000
2,239030	-4,216343	47,836	-0,078463	22,500000	54,380000
2,242023	-4,772891	47,986	-0,078698	22,500000	54,380000
2,245053	-4,937195	48,136	-0,078768	22,500000	54,380000
2,248043	-5,322497	48,286	-0,078930	22,500000	54,380000
2,251023	-6,246992	48,436	-0,079320	22,500000	54,380000
2,254094	-6,654278	48,586	-0,079492	22,500000	54,380000
2,257055	-8,065897	48,736	-0,080088	22,500000	54,380000
2,260080	-8,558807	48,887	-0,080296	22,500000	54,380000
2,263003	-17,627879	49,037	-0,084123	22,500000	54,380000
2,266039	-14,719018	49,187	-0,082896	22,500000	54,380000
2,268994	-11,889996	49,337	-0,081702	22,500000	54,380000
2,272023	-11,325348	49,488	-0,081463	22,500000	54,380000
2,274988	-6,004008	49,638	-0,079218	22,480000	54,385000
2,278015	-5,972767	49,789	-0,079205	22,480000	54,385000
2,281034	-0,242984	49,939	-0,076787	22,480000	54,385000
2,284032	-0,133062	50,090	-0,076740	22,480000	54,385000
2,286986	5,588622	50,240	-0,074326	22,480000	54,385000
2,290037	6,575598	50,391	-0,073909	22,480000	54,385000
2,292994	11,584531	50,541	-0,071795	22,480000	54,385000
2,296021	12,164220	50,692	-0,071551	22,480000	54,385000
2,299055	16,662887	50,842	-0,069652	22,480000	54,385000
2,302028	21,029649	50,992	-0,067810	22,480000	54,385000
2,305059	24,124796	51,143	-0,066503	22,480000	54,385000
2,308046	27,032500	51,293	-0,065276	22,480000	54,385000
2,311015	27,354164	51,444	-0,065141	22,480000	54,385000
2,314031	32,974026	51,594	-0,062769	22,480000	54,385000
2,316984	34,087122	51,744	-0,062299	22,480000	54,385000
2,320009	36,344555	51,894	-0,061347	22,480000	54,385000
2,323028	39,793765	52,044	-0,059891	22,480000	54,385000
2,326014	45,100063	52,194	-0,057652	22,480000	54,385000
2,329080	48,329430	52,344	-0,056289	22,480000	54,385000
2,332043	48,368770	52,494	-0,056272	22,480000	54,385000
2,335051	51,488216	52,644	-0,054956	22,480000	54,385000
2,338002	54,167978	52,795	-0,053825	22,480000	54,385000
2,340999	57,546607	52,945	-0,052399	22,480000	54,385000
2,344027	62,892245	53,095	-0,050144	22,480000	54,385000
2,347005	65,901770	53,245	-0,048874	22,480000	54,385000
2,350014	69,311639	53,395	-0,047435	22,480000	54,385000
