Quasi static measurement routine
Tip parameters (shape,radius, material...) 
30.08.2022

Piezo position[nm]	MEMS displ.[nm]	Time[ms]	Cap [pf]	Temp [°C]	Rh [%]
eoh
1,372124	-0,058888	0,194	-0,123553	22,630000	51,505000
1,374095	1,720026	0,295	-0,122845	22,630000	51,505000
1,376118	1,777687	0,395	-0,122822	22,630000	51,505000
1,378150	4,005624	0,495	-0,121936	22,630000	51,505000
1,380076	7,852986	0,596	-0,120404	22,630000	51,505000
1,382078	10,237957	0,696	-0,119455	22,630000	51,505000
1,384133	12,116245	0,796	-0,118708	22,630000	51,505000
1,386121	14,344182	0,897	-0,117821	22,630000	51,505000
1,388144	16,031083	0,998	-0,117149	22,630000	51,505000
1,390106	17,792822	1,098	-0,116448	22,630000	51,505000
1,392136	19,754534	1,198	-0,115667	22,630000	51,505000
1,394118	22,047493	1,299	-0,114755	22,630000	51,505000
1,396130	22,703851	1,399	-0,114494	22,630000	51,505000
1,398090	24,242305	1,499	-0,113881	22,630000	51,505000
1,400153	26,385590	1,599	-0,113028	22,630000	51,505000
1,402094	28,197629	1,699	-0,112307	22,630000	51,505000
1,404132	30,142166	1,800	-0,111533	22,640000	51,520000
1,406135	33,698767	1,900	-0,110118	22,640000	51,520000
1,408155	36,292301	2,000	-0,109085	22,640000	51,520000
1,410072	38,036864	2,100	-0,108391	22,640000	51,520000
1,412127	40,156839	2,200	-0,107547	22,640000	51,520000
1,414132	42,275587	2,300	-0,106704	22,640000	51,520000
1,416092	44,029964	2,400	-0,106006	22,640000	51,520000
1,418128	46,356048	2,500	-0,105080	22,640000	51,520000
1,420142	46,115588	2,600	-0,105176	22,640000	51,520000
1,422163	48,109198	2,700	-0,104382	22,640000	51,520000
1,424100	50,237761	2,800	-0,103535	22,640000	51,520000
1,426105	52,065749	2,900	-0,102808	22,640000	51,520000
1,428133	56,452919	3,000	-0,101062	22,640000	51,520000
1,430123	57,982785	3,101	-0,100453	22,640000	51,520000
1,432118	60,209495	3,201	-0,099566	22,640000	51,520000
1,434128	60,400881	3,301	-0,099490	22,640000	51,520000
1,436121	62,345418	3,401	-0,098716	22,640000	51,520000
1,438167	64,489930	3,501	-0,097863	22,640000	51,520000
1,440128	67,215963	3,601	-0,096778	22,640000	51,520000
1,442114	68,845203	3,701	-0,096129	22,640000	51,520000
1,444118	70,871938	3,802	-0,095323	22,630000	51,520000
1,446115	73,672807	3,902	-0,094208	22,630000	51,520000
1,448071	75,609984	4,002	-0,093437	22,630000	51,520000
1,450143	77,753268	4,102	-0,092584	22,630000	51,520000
1,452106	79,873243	4,202	-0,091740	22,630000	51,520000
1,454136	79,723569	4,302	-0,091800	22,630000	51,520000
1,456098	81,718406	4,402	-0,091006	22,630000	51,520000
1,458123	85,673730	4,502	-0,089432	22,630000	51,520000
1,460093	86,380388	4,602	-0,089150	22,630000	51,520000
1,462102	89,546855	4,703	-0,087890	22,630000	51,520000
1,464114	90,809271	4,804	-0,087388	22,630000	51,520000
1,466113	92,596773	4,905	-0,086676	22,630000	51,520000
1,468095	94,948620	5,005	-0,085740	22,630000	51,520000
1,470116	96,851445	5,105	-0,084983	22,630000	51,520000
1,472144	98,580058	5,206	-0,084295	22,630000	51,520000
1,474112	99,370142	5,307	-0,083980	22,630000	51,520000
1,476095	102,004161	5,407	-0,082932	22,630000	51,520000
1,478139	104,073836	5,507	-0,082108	22,630000	51,520000
1,480081	105,952124	5,608	-0,081361	22,630000	51,520000
1,482167	108,145709	5,708	-0,080488	22,630000	51,520000
1,484123	111,943997	5,808	-0,078976	22,630000	51,520000
1,486113	112,026195	5,908	-0,078943	22,630000	51,520000
1,488097	113,630899	6,008	-0,078305	22,630000	51,520000
1,490116	115,923858	6,108	-0,077392	22,630000	51,520000
1,492128	117,836497	6,208	-0,076631	22,630000	51,520000
1,494078	120,054619	6,308	-0,075748	22,630000	51,520000
1,496130	123,353584	6,408	-0,074435	22,630000	51,520000
1,498110	124,119131	6,508	-0,074130	22,630000	51,520000
1,500113	128,098991	6,608	-0,072546	22,630000	51,520000
1,502109	130,393177	6,708	-0,071633	22,630000	51,520000
1,504078	132,238340	6,808	-0,070899	22,630000	51,520000
1,506129	133,850404	6,908	-0,070257	22,630000	51,520000
1,508097	134,233178	7,008	-0,070105	22,630000	51,520000
1,510072	135,927440	7,109	-0,069431	22,630000	51,520000
1,512106	137,831491	7,209	-0,068673	22,630000	51,520000
1,514110	139,866815	7,309	-0,067863	22,630000	51,520000
1,516075	141,703390	7,409	-0,067132	22,630000	51,520000
1,518066	143,282330	7,509	-0,066503	22,630000	51,520000
1,520156	145,468554	7,610	-0,065633	22,630000	51,520000
1,522093	147,712439	7,710	-0,064740	22,630000	51,520000
1,524121	151,651814	7,810	-0,063172	22,630000	51,545000
1,526170	151,559801	7,910	-0,063209	22,630000	51,545000
1,528087	153,688364	8,010	-0,062362	22,630000	51,545000
1,530110	155,781348	8,111	-0,061529	22,630000	51,545000
1,532088	157,817898	8,211	-0,060718	22,630000	51,545000
1,534134	159,878985	8,311	-0,059898	22,630000	51,545000
1,536113	163,602436	8,411	-0,058416	22,630000	51,545000
1,538141	165,821785	8,511	-0,057533	22,630000	51,545000
1,540117	165,663523	8,611	-0,057596	22,630000	51,545000
1,542056	167,557760	8,711	-0,056842	22,630000	51,545000
1,544138	169,926782	8,812	-0,055899	22,630000	51,545000
1,546076	171,871319	8,912	-0,055125	22,630000	51,545000
1,548122	175,819282	9,012	-0,053554	22,630000	51,545000
1,550095	175,569007	9,113	-0,053653	22,630000	51,545000
1,552116	177,805532	9,213	-0,052763	22,630000	51,545000
1,554083	181,661481	9,313	-0,051229	22,630000	51,545000
1,556106	183,672268	9,413	-0,050428	22,630000	51,545000
1,558125	185,467131	9,513	-0,049714	22,630000	51,545000
1,560049	187,528217	9,613	-0,048894	22,630000	51,545000
1,562088	189,688678	9,713	-0,048034	22,630000	51,545000
1,564106	191,533841	9,813	-0,047299	22,640000	51,505000
1,566131	193,587567	9,914	-0,046482	22,640000	51,505000
1,568137	195,648653	10,014	-0,045662	22,640000	51,505000
1,570131	195,631478	10,114	-0,045668	22,640000	51,505000
1,572111	197,525715	10,215	-0,044915	22,640000	51,505000
1,574092	199,454303	10,316	-0,044147	22,640000	51,505000
1,576099	201,647888	10,417	-0,043274	22,640000	51,505000
1,578141	203,567888	10,518	-0,042510	22,640000	51,505000
1,580108	207,540387	10,618	-0,040929	22,640000	51,505000
1,582145	207,798023	10,718	-0,040826	22,640000	51,505000
1,584103	209,601474	10,818	-0,040108	22,640000	51,505000
1,586096	213,607098	10,919	-0,038514	22,640000	51,505000
1,588124	214,073296	11,019	-0,038329	22,640000	51,505000
1,590086	217,222588	11,119	-0,037075	22,640000	51,505000
1,592131	218,867776	11,219	-0,036420	22,640000	51,505000
1,594128	220,646690	11,320	-0,035712	22,640000	51,505000
1,596037	224,029081	11,421	-0,034366	22,640000	51,505000
1,598094	224,137043	11,521	-0,034323	22,640000	51,505000
1,600108	225,790819	11,621	-0,033665	22,640000	51,505000
1,602106	228,724187	11,722	-0,032498	22,640000	51,505000
1,604139	230,469977	11,822	-0,031803	22,630000	51,545000
1,606154	232,064865	11,922	-0,031168	22,630000	51,545000
1,608133	234,043754	12,022	-0,030380	22,630000	51,545000
1,610091	235,863154	12,122	-0,029656	22,630000	51,545000
1,612106	237,724266	12,223	-0,028916	22,630000	51,545000
1,614082	239,926439	12,324	-0,028039	22,630000	51,545000
1,616104	241,614567	12,424	-0,027367	22,630000	51,545000
1,618103	244,381085	12,525	-0,026266	22,630000	51,545000
1,620073	245,703616	12,625	-0,025740	22,630000	51,545000
1,622086	247,913150	12,725	-0,024860	22,630000	51,545000
1,624115	249,683476	12,826	-0,024156	22,630000	51,545000
1,626123	251,803451	12,926	-0,023312	22,630000	51,545000
1,628087	255,866736	13,026	-0,021695	22,630000	51,545000
1,630118	255,683937	13,127	-0,021768	22,630000	51,545000
1,632077	257,720487	13,227	-0,020957	22,630000	51,545000
1,634084	259,557063	13,328	-0,020226	22,630000	51,545000
1,636042	261,742060	13,428	-0,019356	22,630000	51,545000
1,638136	263,844859	13,528	-0,018520	22,630000	51,545000
1,640053	267,676272	13,628	-0,016995	22,630000	51,545000
1,642072	269,620809	13,729	-0,016221	22,630000	51,520000
1,644131	271,906407	13,830	-0,015311	22,630000	51,520000
1,646122	271,349423	13,930	-0,015533	22,630000	51,520000
1,648086	273,659558	14,030	-0,014613	22,630000	51,520000
1,650078	275,687520	14,130	-0,013806	22,630000	51,520000
1,652112	277,790319	14,231	-0,012969	22,630000	51,520000
1,654160	279,917655	14,331	-0,012123	22,630000	51,520000
1,656102	281,646268	14,431	-0,011435	22,630000	51,520000
1,658098	285,369720	14,531	-0,009953	22,630000	51,520000
1,660122	287,056621	14,632	-0,009281	22,630000	51,520000
1,662157	289,615804	14,732	-0,008263	22,630000	51,520000
1,664094	291,643766	14,832	-0,007456	22,630000	51,520000
1,666094	293,431268	14,933	-0,006744	22,630000	51,520000
1,668089	294,286373	15,033	-0,006404	22,630000	51,520000
1,670144	297,611102	15,134	-0,005081	22,630000	51,520000
1,672144	299,621889	15,234	-0,004280	22,630000	51,520000
1,674078	300,810694	15,335	-0,003807	22,630000	51,520000
1,676089	303,045992	15,435	-0,002917	22,630000	51,520000
1,678050	304,716944	15,536	-0,002252	22,630000	51,520000
1,680093	305,406427	15,638	-0,001978	22,630000	51,520000
1,682106	307,617187	15,738	-0,001098	22,620000	51,530000
1,684066	310,035284	15,838	-0,000136	22,620000	51,530000
1,686081	312,728192	15,938	0,000936	22,620000	51,530000
1,688050	315,005202	16,038	0,001842	22,620000	51,530000
1,690117	317,015988	16,138	0,002643	22,620000	51,530000
1,692105	319,534685	16,239	0,003645	22,620000	51,530000
1,694147	319,559222	16,339	0,003655	22,620000	51,530000
1,696081	322,069331	16,439	0,004654	22,620000	51,530000
1,698084	323,963568	16,539	0,005408	22,620000	51,530000
1,700081	327,437971	16,639	0,006791	22,620000	51,530000
1,702107	327,761856	16,739	0,006919	22,620000	51,530000
1,704148	329,432809	16,840	0,007584	22,620000	51,530000
1,706091	331,717180	16,940	0,008494	22,620000	51,530000
1,708088	335,308132	17,040	0,009923	22,620000	51,530000
1,710054	335,349845	17,140	0,009939	22,620000	51,530000
1,712083	337,950740	17,240	0,010975	22,620000	51,530000
1,714076	339,629053	17,340	0,011643	22,620000	51,530000
1,716070	341,798102	17,441	0,012506	22,620000	51,530000
1,718103	345,512965	17,541	0,013984	22,620000	51,530000
1,720067	345,770601	17,641	0,014087	22,620000	51,530000
1,722107	347,558103	17,741	0,014798	22,620000	51,545000
1,724076	349,694027	17,842	0,015648	22,620000	51,545000
1,726126	351,871663	17,942	0,016515	22,620000	51,545000
1,728098	353,715599	18,042	0,017249	22,620000	51,545000
1,730072	357,754348	18,142	0,018856	22,620000	51,545000
1,732128	357,780111	18,242	0,018867	22,620000	51,545000
1,734071	359,682936	18,342	0,019624	22,620000	51,545000
1,736096	361,536687	18,442	0,020362	22,620000	51,545000
1,738085	363,589186	18,543	0,021179	22,620000	51,545000
1,740079	365,434349	18,643	0,021913	22,620000	51,545000
1,742109	367,345762	18,743	0,022674	22,620000	51,545000
1,744157	371,542772	18,843	0,024344	22,620000	51,545000
1,746080	371,575897	18,943	0,024357	22,620000	51,545000
1,748101	373,622262	19,044	0,025172	22,620000	51,545000
1,750115	377,326084	19,144	0,026646	22,620000	51,545000
1,752093	379,944154	19,244	0,027688	22,620000	51,545000
1,754073	379,520895	19,345	0,027520	22,620000	51,545000
1,756103	383,551056	19,445	0,029124	22,620000	51,545000
1,758079	383,683554	19,546	0,029176	22,620000	51,545000
1,760076	385,453881	19,646	0,029881	22,620000	51,545000
1,762093	387,814316	19,746	0,030820	22,640000	51,530000
1,764050	390,831109	19,846	0,032021	22,640000	51,530000
1,766136	390,839697	19,947	0,032024	22,640000	51,530000
1,768062	395,510266	20,048	0,033883	22,640000	51,530000
1,770124	395,327467	20,148	0,033811	22,640000	51,530000
1,772088	397,246241	20,248	0,034574	22,640000	51,530000
1,774136	399,357628	20,349	0,035415	22,640000	51,530000
1,776109	401,385590	20,450	0,036222	22,640000	51,530000
1,778101	404,210996	20,550	0,037346	22,640000	51,530000
1,780113	407,311214	20,651	0,038580	22,640000	51,530000
1,782097	408,823905	20,752	0,039182	22,640000	51,530000
1,784059	409,438550	20,853	0,039427	22,640000	51,530000
1,786143	412,106921	20,953	0,040489	22,640000	51,530000
1,788096	414,525018	21,054	0,041451	22,640000	51,530000
1,790108	415,862270	21,155	0,041983	22,640000	51,530000
1,792091	418,248469	21,256	0,042933	22,640000	51,530000
1,794105	419,510885	21,357	0,043436	22,640000	51,530000
1,796069	421,970693	21,457	0,044415	22,640000	51,530000
1,798058	424,430502	21,557	0,045394	22,640000	51,530000
1,800103	425,694145	21,657	0,045896	22,640000	51,530000
1,802062	427,347921	21,757	0,046555	22,640000	51,545000
1,804063	429,567270	21,858	0,047438	22,640000	51,545000
1,806116	431,419794	21,958	0,048175	22,640000	51,545000
1,808092	433,414632	22,058	0,048969	22,640000	51,545000
1,810073	434,827948	22,158	0,049532	22,640000	51,545000
1,812086	437,695067	22,259	0,050673	22,640000	51,545000
1,814071	439,505879	22,359	0,051394	22,640000	51,545000
1,816077	441,276205	22,459	0,052098	22,640000	51,545000
1,818116	443,504142	22,559	0,052985	22,640000	51,545000
1,820114	447,309791	22,659	0,054500	22,640000	51,545000
1,822089	449,487427	22,759	0,055366	22,640000	51,545000
1,824058	451,614763	22,859	0,056213	22,640000	51,545000
1,826061	451,290878	22,959	0,056084	22,640000	51,545000
1,828097	455,097754	23,059	0,057599	22,640000	51,545000
1,830046	455,056042	23,159	0,057583	22,640000	51,545000
1,832067	458,920579	23,259	0,059121	22,640000	51,545000
1,834072	459,218701	23,359	0,059239	22,640000	51,545000
1,836057	460,989027	23,459	0,059944	22,640000	51,545000
1,838090	463,300389	23,560	0,060864	22,640000	51,545000
1,840028	465,443673	23,660	0,061717	22,640000	51,545000
1,842101	467,123214	23,760	0,062385	22,640000	51,505000
1,844075	471,344761	23,861	0,064065	22,640000	51,505000
1,846095	473,397260	23,961	0,064882	22,640000	51,505000
1,848089	475,266960	24,062	0,065626	22,640000	51,505000
1,850093	477,244622	24,162	0,066414	22,640000	51,505000
1,852073	479,322884	24,262	0,067241	22,640000	51,505000
1,854094	481,483344	24,363	0,068101	22,640000	51,505000
1,856111	481,025734	24,463	0,067918	22,640000	51,505000
1,858118	483,095409	24,563	0,068742	22,640000	51,505000
1,860109	485,114783	24,663	0,069546	22,640000	51,505000
1,862074	486,918234	24,763	0,070264	22,640000	51,505000
1,864089	489,187883	24,863	0,071167	22,640000	51,505000
1,866076	491,148369	24,963	0,071947	22,640000	51,505000
1,868096	495,087743	25,063	0,073515	22,640000	51,505000
1,870104	495,146632	25,164	0,073539	22,640000	51,505000
1,872105	497,232255	25,264	0,074369	22,640000	51,505000
1,874066	501,229291	25,364	0,075959	22,640000	51,505000
1,876079	503,083042	25,464	0,076697	22,640000	51,505000
1,878092	505,335515	25,564	0,077594	22,640000	51,505000
1,880077	506,972116	25,665	0,078245	22,640000	51,505000
1,882040	507,487388	25,765	0,078450	22,630000	51,520000
1,884101	511,144590	25,865	0,079906	22,630000	51,520000
1,886050	513,005702	25,965	0,080646	22,630000	51,520000
1,888081	514,791977	26,066	0,081357	22,630000	51,520000
1,890113	514,934291	26,167	0,081414	22,630000	51,520000
1,892145	518,282330	26,267	0,082747	22,630000	51,520000
1,894088	520,867276	26,368	0,083775	22,630000	51,520000
1,896089	521,025538	26,468	0,083838	22,630000	51,520000
1,898078	522,679315	26,568	0,084497	22,630000	51,520000
1,900123	525,222548	26,668	0,085509	22,630000	51,520000
1,902114	528,164504	26,768	0,086680	22,630000	51,520000
1,904079	530,175291	26,868	0,087480	22,630000	51,520000
1,906123	531,738281	26,968	0,088102	22,630000	51,520000
1,908063	533,674231	27,068	0,088873	22,630000	51,520000
1,910104	535,676429	27,169	0,089669	22,630000	51,520000
1,912069	537,754691	27,270	0,090497	22,630000	51,520000
1,914034	539,566730	27,371	0,091218	22,630000	51,520000
1,916079	542,117325	27,471	0,092233	22,630000	51,520000
1,918072	544,054501	27,571	0,093004	22,630000	51,520000
1,920060	546,023575	27,671	0,093788	22,630000	51,520000
1,922098	548,001237	27,771	0,094575	22,630000	51,520000
1,924083	549,672189	27,871	0,095240	22,630000	51,520000
1,926057	550,702732	27,972	0,095650	22,630000	51,520000
1,928123	553,686401	28,072	0,096837	22,630000	51,520000
1,930093	555,397839	28,172	0,097519	22,630000	51,520000
1,932070	559,029277	28,272	0,098964	22,630000	51,520000
1,934100	559,653737	28,372	0,099212	22,630000	51,520000
1,936048	560,799603	28,472	0,099668	22,630000	51,520000
1,938082	563,234876	28,573	0,100638	22,630000	51,520000
1,940065	565,188001	28,674	0,101415	22,630000	51,520000
1,942033	567,165662	28,774	0,102202	22,630000	51,520000
1,944091	569,002238	28,874	0,102933	22,630000	51,520000
1,946116	571,120986	28,975	0,103776	22,630000	51,520000
1,948094	574,943811	29,075	0,105298	22,630000	51,520000
1,950068	576,964412	29,176	0,106102	22,630000	51,520000
1,952085	579,149409	29,277	0,106972	22,630000	51,520000
1,954060	580,646151	29,377	0,107567	22,630000	51,520000
1,956047	582,989410	29,477	0,108500	22,630000	51,520000
1,958070	585,041909	29,578	0,109317	22,630000	51,520000
1,960107	587,120171	29,678	0,110144	22,630000	51,520000
1,962110	589,080657	29,778	0,110924	22,640000	51,530000
1,964052	588,631635	29,878	0,110746	22,640000	51,530000
1,966047	591,050958	29,978	0,111708	22,640000	51,530000
1,968080	593,244543	30,078	0,112582	22,640000	51,530000
1,970098	596,452723	30,178	0,113858	22,640000	51,530000
1,972098	596,983943	30,279	0,114070	22,640000	51,530000
1,974076	598,912531	30,380	0,114837	22,640000	51,530000
1,976038	600,980979	30,480	0,115661	22,640000	51,530000
1,978071	603,001580	30,580	0,116465	22,640000	51,530000
1,980079	607,205952	30,680	0,118138	22,640000	51,530000
1,982059	608,852367	30,780	0,118793	22,640000	51,530000
1,984065	611,030004	30,880	0,119660	22,640000	51,530000
1,986004	613,056739	30,980	0,120467	22,640000	51,530000
1,988086	614,968151	31,080	0,121228	22,640000	51,530000
1,990096	614,860190	31,180	0,121185	22,640000	51,530000
1,992091	616,804727	31,280	0,121958	22,640000	51,530000
1,994124	618,916114	31,380	0,122799	22,640000	51,530000
1,996045	620,951437	31,480	0,123609	22,640000	51,530000
1,998063	623,254211	31,581	0,124525	22,640000	51,530000
2,000097	625,090786	31,681	0,125256	22,640000	51,530000
2,002081	627,127336	31,781	0,126067	22,620000	51,530000
2,004075	628,838774	31,881	0,126748	22,620000	51,530000
2,006082	632,055541	31,982	0,128028	22,620000	51,530000
2,008072	633,185459	32,082	0,128478	22,620000	51,530000
2,010092	635,022034	32,183	0,129209	22,620000	51,530000
2,012034	638,719722	32,284	0,130681	22,620000	51,530000
2,014085	639,675428	32,385	0,131061	22,620000	51,530000
2,016053	642,401460	32,486	0,132146	22,620000	51,530000
2,018062	643,847902	32,586	0,132722	22,620000	51,530000
2,020061	645,078419	32,687	0,133211	22,620000	51,530000
2,022085	648,401922	32,787	0,134534	22,620000	51,530000
2,024080	650,006625	32,887	0,135173	22,620000	51,530000
2,026098	652,865156	32,987	0,136311	22,620000	51,530000
2,028029	653,638063	33,088	0,136618	22,620000	51,530000
2,030089	656,115048	33,189	0,137604	22,620000	51,530000
2,032045	657,734473	33,289	0,138249	22,620000	51,530000
2,034060	659,272927	33,390	0,138861	22,620000	51,530000
2,036091	661,383087	33,490	0,139701	22,620000	51,530000
2,038050	662,781682	33,590	0,140257	22,620000	51,530000
2,040053	665,538385	33,690	0,141354	22,620000	51,530000
2,042123	667,200750	33,790	0,142016	22,620000	51,530000
2,044040	669,303549	33,890	0,142853	22,620000	51,530000
2,046084	673,076074	33,990	0,144354	22,620000	51,530000
2,048098	672,736240	34,090	0,144219	22,620000	51,530000
2,050035	674,980125	34,190	0,145112	22,620000	51,530000
2,052085	677,398222	34,290	0,146075	22,620000	51,530000
2,054076	679,409008	34,391	0,146875	22,620000	51,530000
2,056026	681,362133	34,491	0,147652	22,620000	51,530000
2,058122	685,167782	34,592	0,149167	22,620000	51,530000
2,060074	687,237457	34,692	0,149991	22,620000	51,530000
2,062051	688,932946	34,793	0,150666	22,620000	51,530000
2,064063	691,018569	34,894	0,151496	22,620000	51,530000
2,066025	693,112781	34,995	0,152329	22,620000	51,530000
2,068095	692,788896	35,095	0,152200	22,620000	51,530000
2,070106	695,215580	35,195	0,153166	22,620000	51,530000
2,072047	697,069331	35,295	0,153904	22,620000	51,530000
2,074062	699,080117	35,395	0,154704	22,620000	51,530000
2,076029	700,892156	35,495	0,155425	22,620000	51,530000
2,078075	703,210879	35,595	0,156348	22,620000	51,530000
