Quasi static measurement routine
Tip parameters (shape,radius, material...) 
24.08.2022

Piezo position[nm]	MEMS displ.[nm]	Time[ms]	Cap [pf]	Temp [°C]	Rh [%]
eoh
2,619908	0,165623	0,222	-0,121575	22,350000	51,555000
2,621864	-0,116550	0,322	-0,121688	22,350000	51,555000
2,623952	2,359208	0,422	-0,120702	22,350000	51,555000
2,625856	4,296384	0,522	-0,119931	22,350000	51,555000
2,627876	7,403963	0,623	-0,118694	22,350000	51,555000
2,629928	9,914072	0,723	-0,117695	22,350000	51,555000
2,631932	12,208258	0,823	-0,116782	22,350000	51,555000
2,633922	14,311057	0,924	-0,115945	22,350000	51,580000
2,635898	16,288719	1,025	-0,115158	22,350000	51,580000
2,637931	16,354968	1,125	-0,115132	22,350000	51,580000
2,639901	18,398879	1,226	-0,114318	22,350000	51,580000
2,641872	20,310292	1,326	-0,113558	22,350000	51,580000
2,643886	22,172631	1,426	-0,112816	22,350000	51,580000
2,645880	26,327929	1,527	-0,111163	22,350000	51,580000
2,647911	26,244504	1,627	-0,111196	22,350000	51,580000
2,649909	28,554638	1,728	-0,110276	22,350000	51,580000
2,651925	30,524939	1,828	-0,109492	22,350000	51,580000
2,653923	34,604173	1,928	-0,107869	22,350000	51,580000
2,655911	36,632135	2,029	-0,107062	22,350000	51,580000
2,657913	38,602436	2,129	-0,106277	22,350000	51,580000
2,659905	40,621810	2,229	-0,105474	22,350000	51,580000
2,661891	42,790859	2,329	-0,104610	22,350000	51,580000
2,663866	42,441210	2,429	-0,104750	22,350000	51,580000
2,665954	44,420099	2,529	-0,103962	22,350000	51,580000
2,667894	46,697109	2,630	-0,103056	22,350000	51,580000
2,669936	48,674770	2,731	-0,102269	22,350000	51,580000
2,671935	50,727269	2,831	-0,101452	22,350000	51,580000
2,673881	52,904905	2,932	-0,100585	22,350000	51,580000
2,675933	54,658056	3,032	-0,099887	22,350000	51,580000
2,677916	58,929903	3,133	-0,098187	22,350000	51,580000
2,679875	60,907565	3,234	-0,097400	22,350000	51,580000
2,681876	62,836153	3,334	-0,096632	22,350000	51,580000
2,683873	64,897240	3,434	-0,095812	22,350000	51,580000
2,685873	66,643030	3,535	-0,095117	22,350000	51,580000
2,687908	66,709279	3,636	-0,095091	22,350000	51,580000
2,689912	68,669765	3,736	-0,094311	22,350000	51,580000
2,691906	70,697727	3,836	-0,093503	22,350000	51,580000
2,693861	74,778188	3,937	-0,091879	22,350000	51,580000
2,695903	75,143785	4,037	-0,091734	22,350000	51,580000
2,697889	77,114086	4,138	-0,090950	22,350000	51,580000
2,699868	80,529601	4,238	-0,089590	22,350000	51,580000
2,701933	82,789435	4,339	-0,088691	22,350000	51,580000
2,703877	82,806611	4,440	-0,088684	22,350000	51,580000
2,705877	86,338676	4,540	-0,087278	22,350000	51,580000
2,707883	87,186420	4,640	-0,086941	22,350000	51,580000
2,709909	88,972696	4,741	-0,086230	22,350000	51,580000
2,711910	91,216581	4,842	-0,085337	22,350000	51,580000
2,713923	93,486230	4,942	-0,084434	22,350000	51,555000
2,715873	95,030818	5,043	-0,083819	22,350000	51,555000
2,717914	98,654896	5,143	-0,082376	22,350000	51,555000
2,719906	98,937068	5,243	-0,082264	22,350000	51,555000
2,721914	100,790819	5,344	-0,081526	22,350000	51,555000
2,723861	103,283753	5,444	-0,080534	22,350000	51,555000
2,725878	106,831766	5,544	-0,079122	22,350000	51,555000
2,727806	107,172827	5,645	-0,078986	22,350000	51,555000
2,729913	109,176252	5,745	-0,078189	22,350000	51,555000
2,731906	110,830029	5,845	-0,077531	22,350000	51,555000
2,733859	113,897122	5,945	-0,076310	22,350000	51,555000
2,735856	114,353506	6,046	-0,076128	22,350000	51,555000
2,737877	116,747065	6,146	-0,075176	22,350000	51,555000
2,739914	119,347961	6,246	-0,074141	22,350000	51,555000
2,741908	121,159999	6,346	-0,073419	22,350000	51,555000
2,743863	123,603859	6,446	-0,072447	22,350000	51,555000
2,745878	125,015949	6,547	-0,071885	22,350000	51,555000
2,747859	128,946736	6,647	-0,070320	22,350000	51,555000
2,749889	128,913611	6,747	-0,070333	22,350000	51,555000
2,751902	132,786736	6,847	-0,068792	22,350000	51,555000
2,753815	135,105459	6,947	-0,067869	22,350000	51,565000
2,755882	137,182495	7,048	-0,067042	22,350000	51,565000
2,757908	138,728310	7,148	-0,066427	22,350000	51,565000
2,759848	140,923121	7,248	-0,065554	22,350000	51,565000
2,761906	143,024694	7,348	-0,064717	22,350000	51,565000
2,763872	144,928745	7,449	-0,063959	22,350000	51,565000
2,765820	144,387710	7,549	-0,064175	22,350000	51,565000
2,767884	147,105155	7,650	-0,063093	22,350000	51,565000
2,769926	148,917193	7,750	-0,062372	22,350000	51,565000
2,771819	152,823443	7,850	-0,060817	22,350000	51,565000
2,773835	153,446677	7,950	-0,060569	22,350000	51,565000
2,775907	157,053578	8,050	-0,059134	22,350000	51,565000
2,777859	159,039828	8,150	-0,058343	22,350000	51,565000
2,779898	160,801566	8,250	-0,057642	22,350000	51,565000
2,781953	163,003739	8,351	-0,056766	22,350000	51,565000
2,783947	164,774066	8,451	-0,056061	22,350000	51,565000
2,785844	166,502679	8,551	-0,055373	22,350000	51,565000
2,787876	168,513466	8,652	-0,054573	22,350000	51,565000
2,789868	170,200367	8,752	-0,053901	22,350000	51,565000
2,791954	172,818438	8,852	-0,052859	22,350000	51,565000
2,793927	175,128573	8,953	-0,051940	22,350000	51,565000
2,795918	176,649851	9,053	-0,051334	22,350000	51,565000
2,797873	176,592189	9,154	-0,051357	22,350000	51,565000
2,799894	180,697187	9,254	-0,049724	22,350000	51,565000
2,801887	180,846861	9,354	-0,049664	22,350000	51,565000
2,803860	182,674849	9,454	-0,048937	22,350000	51,565000
2,805861	184,612025	9,555	-0,048166	22,350000	51,565000
2,807851	186,539386	9,655	-0,047398	22,350000	51,565000
2,809882	190,744985	9,755	-0,045725	22,350000	51,565000
2,811895	191,883490	9,855	-0,045271	22,350000	51,565000
2,813856	192,905445	9,956	-0,044865	22,350000	51,565000
2,815896	195,573816	10,056	-0,043803	22,350000	51,565000
2,817900	197,160117	10,156	-0,043171	22,350000	51,565000
2,819871	199,121830	10,257	-0,042391	22,350000	51,565000
2,821900	200,792782	10,357	-0,041726	22,350000	51,565000
2,823890	203,858649	10,457	-0,040505	22,350000	51,565000
2,825882	205,014329	10,558	-0,040045	22,350000	51,565000
2,827860	207,972234	10,658	-0,038868	22,350000	51,565000
2,829865	208,845742	10,759	-0,038521	22,350000	51,565000
2,831867	211,413513	10,859	-0,037499	22,350000	51,565000
2,833864	212,942152	10,959	-0,036890	22,350000	51,565000
2,835898	215,078076	11,059	-0,036040	22,350000	51,565000
2,837919	216,764977	11,159	-0,035369	22,350000	51,565000
2,839902	219,116824	11,259	-0,034433	22,350000	51,565000
2,841863	222,591228	11,360	-0,033050	22,350000	51,565000
2,843821	222,824327	11,460	-0,032957	22,350000	51,565000
2,845937	226,255791	11,560	-0,031591	22,350000	51,565000
2,847882	226,654513	11,660	-0,031433	22,350000	51,565000
2,849942	228,849325	11,760	-0,030559	22,350000	51,565000
2,851920	230,851523	11,860	-0,029762	22,350000	51,565000
2,853901	233,079460	11,960	-0,028875	22,350000	51,565000
2,855842	234,749185	12,061	-0,028211	22,350000	51,565000
2,857890	236,759972	12,162	-0,027411	22,350000	51,565000
2,859879	238,472637	12,263	-0,026729	22,350000	51,565000
2,861848	240,890733	12,363	-0,025767	22,350000	51,565000
2,863844	242,553098	12,463	-0,025105	22,350000	51,565000
2,865888	244,805571	12,563	-0,024208	22,350000	51,565000
2,867869	249,068830	12,663	-0,022512	22,350000	51,565000
2,869820	250,747144	12,763	-0,021844	22,350000	51,565000
2,871827	253,008205	12,864	-0,020944	22,350000	51,565000
2,873854	254,952742	12,964	-0,020170	22,360000	51,585000
2,875895	256,855567	13,064	-0,019413	22,360000	51,585000
2,877928	256,980704	13,164	-0,019363	22,360000	51,585000
2,879903	258,883529	13,264	-0,018605	22,360000	51,585000
2,881910	260,720104	13,364	-0,017875	22,360000	51,585000
2,883885	262,781191	13,464	-0,017054	22,360000	51,585000
2,885909	264,758853	13,564	-0,016267	22,360000	51,585000
2,887883	268,988988	13,664	-0,014583	22,360000	51,585000
2,889873	270,891813	13,764	-0,013826	22,360000	51,585000
2,891895	272,844938	13,865	-0,013049	22,360000	51,585000
2,893931	275,072874	13,965	-0,012162	22,360000	51,585000
2,895901	277,174446	14,065	-0,011326	22,360000	51,585000
2,897873	278,928824	14,165	-0,010627	22,360000	51,585000
2,899856	281,073335	14,265	-0,009774	22,360000	51,585000
2,901839	283,125834	14,365	-0,008957	22,360000	51,585000
2,903861	283,423956	14,465	-0,008838	22,360000	51,585000
2,905912	284,804148	14,567	-0,008289	22,360000	51,585000
2,907908	287,214883	14,667	-0,007330	22,360000	51,585000
2,909864	289,258794	14,767	-0,006516	22,360000	51,585000
2,911880	290,929746	14,867	-0,005851	22,360000	51,585000
2,913858	293,405504	14,967	-0,004866	22,360000	51,585000
2,915837	296,140124	15,067	-0,003777	22,360000	51,585000
2,917906	298,815857	15,167	-0,002712	22,360000	51,585000
2,919855	300,902707	15,267	-0,001882	22,360000	51,585000
2,921891	303,237378	15,367	-0,000953	22,360000	51,585000
2,923867	305,239577	15,467	-0,000156	22,360000	51,585000
2,925888	304,882567	15,567	-0,000298	22,360000	51,585000
2,927883	306,943654	15,668	0,000522	22,360000	51,585000
2,929917	308,821942	15,768	0,001270	22,360000	51,585000
2,931858	311,206913	15,868	0,002219	22,360000	51,585000
2,933881	313,036128	15,969	0,002947	22,360000	51,585000
2,935866	315,071451	16,070	0,003757	22,360000	51,585000
2,937803	317,872321	16,170	0,004872	22,360000	51,585000
2,939864	319,783733	16,271	0,005633	22,360000	51,585000
2,941895	321,354085	16,371	0,006258	22,360000	51,585000
2,943898	322,908488	16,472	0,006876	22,360000	51,585000
2,945866	325,119249	16,573	0,007756	22,360000	51,585000
2,947898	328,999735	16,674	0,009301	22,360000	51,585000
2,949905	328,609601	16,774	0,009146	22,360000	51,585000
2,951871	331,011748	16,874	0,010102	22,360000	51,585000
2,953882	333,604055	16,974	0,011133	22,350000	51,555000
2,955861	335,365794	17,075	0,011834	22,350000	51,555000
2,957858	337,195008	17,175	0,012563	22,350000	51,555000
2,959926	339,040172	17,277	0,013297	22,350000	51,555000
2,961831	340,992070	17,378	0,014074	22,350000	51,555000
2,963838	343,037208	17,478	0,014888	22,350000	51,555000
2,965916	345,180492	17,578	0,015741	22,350000	51,555000
2,967877	349,469516	17,678	0,017448	22,350000	51,555000
2,969826	351,048455	17,778	0,018076	22,350000	51,555000
2,971843	352,178372	17,879	0,018526	22,350000	51,555000
2,973868	355,285951	17,980	0,019763	22,350000	51,555000
2,975886	355,162041	18,080	0,019713	22,350000	51,555000
2,977895	357,181415	18,180	0,020517	22,350000	51,555000
2,979840	359,017990	18,280	0,021248	22,350000	51,555000
2,981887	360,929403	18,381	0,022009	22,350000	51,555000
2,983840	364,901902	18,481	0,023590	22,350000	51,555000
2,985816	366,872203	18,582	0,024374	22,350000	51,555000
2,987864	369,006900	18,682	0,025224	22,350000	51,555000
2,989877	371,093750	18,782	0,026054	22,350000	51,555000
2,991876	372,972038	18,883	0,026802	22,350000	51,555000
2,993865	375,141086	18,985	0,027665	22,350000	51,555000
2,995822	376,744563	19,085	0,028303	22,350000	51,555000
2,997851	378,997036	19,185	0,029200	22,350000	51,555000
2,999884	378,930787	19,285	0,029173	22,350000	51,555000
3,001895	381,007822	19,386	0,030000	22,350000	51,555000
3,003875	382,944998	19,486	0,030771	22,350000	51,555000
3,005895	385,121408	19,586	0,031637	22,350000	51,555000
3,007832	387,016871	19,686	0,032392	22,350000	51,555000
3,009875	390,921895	19,786	0,033946	22,350000	51,555000
3,011843	391,711978	19,886	0,034260	22,350000	51,555000
3,013833	394,603633	19,987	0,035411	22,350000	51,555000
3,015882	396,715020	20,088	0,036251	22,350000	51,555000
3,017873	398,401922	20,189	0,036923	22,350000	51,555000
3,019858	399,623852	20,289	0,037409	22,350000	51,555000
3,021852	401,127954	20,390	0,038008	22,350000	51,555000
3,023871	403,712900	20,490	0,039037	22,350000	51,555000
3,025847	405,316377	20,590	0,039675	22,350000	51,555000
3,027858	407,494013	20,691	0,040542	22,350000	51,555000
3,029880	409,645886	20,791	0,041398	22,350000	51,555000
3,031856	411,391675	20,892	0,042093	22,350000	51,555000
3,033824	413,377925	20,992	0,042883	22,350000	51,565000
3,035841	415,348226	21,093	0,043667	22,350000	51,565000
3,037878	417,491510	21,193	0,044521	22,350000	51,565000
3,039854	419,253249	21,293	0,045222	22,350000	51,565000
3,041818	423,126374	21,393	0,046763	22,350000	51,565000
3,043874	425,137160	21,493	0,047563	22,350000	51,565000
3,045874	425,095448	21,593	0,047547	22,350000	51,565000
3,047845	427,065749	21,694	0,048331	22,350000	51,565000
3,049842	428,761238	21,794	0,049006	22,350000	51,565000
3,051860	431,254171	21,895	0,049998	22,350000	51,565000
3,053876	433,007322	21,995	0,050696	22,350000	51,565000
3,055888	435,200907	22,096	0,051569	22,350000	51,565000
3,057853	437,021533	22,196	0,052293	22,350000	51,565000
3,059876	438,899821	22,296	0,053041	22,350000	51,565000
3,061863	443,295579	22,397	0,054791	22,350000	51,565000
3,063872	443,072295	22,497	0,054702	22,350000	51,565000
3,065880	445,166506	22,597	0,055535	22,350000	51,565000
3,067887	447,401804	22,698	0,056425	22,350000	51,565000
3,069874	448,831069	22,798	0,056994	22,350000	51,565000
3,071869	451,249166	22,898	0,057956	22,350000	51,565000
3,073815	455,354163	22,999	0,059590	22,360000	51,570000
3,075879	455,171365	23,100	0,059517	22,360000	51,570000
3,077863	459,634599	23,201	0,061293	22,360000	51,570000
3,079908	460,964490	23,301	0,061823	22,360000	51,570000
3,081903	463,466012	23,401	0,062818	22,360000	51,570000
3,083919	462,966689	23,501	0,062620	22,360000	51,570000
3,085819	464,912453	23,601	0,063394	22,360000	51,570000
3,087885	468,751227	23,702	0,064922	22,360000	51,570000
3,089829	469,898320	23,803	0,065378	22,360000	51,570000
3,091912	472,815739	23,903	0,066540	22,360000	51,570000
3,093852	474,826525	24,003	0,067340	22,360000	51,570000
3,095838	476,614027	24,103	0,068051	22,360000	51,570000
3,097858	479,214922	24,203	0,069086	22,360000	51,570000
3,099888	478,940111	24,304	0,068977	22,360000	51,570000
3,101918	482,489351	24,404	0,070390	22,360000	51,570000
3,103849	483,178834	24,504	0,070664	22,360000	51,570000
3,105871	485,090246	24,604	0,071425	22,360000	51,570000
3,107848	488,081276	24,704	0,072615	22,360000	51,570000
3,109846	490,192663	24,804	0,073456	22,360000	51,570000
3,111827	491,106656	24,904	0,073819	22,360000	51,570000
3,113808	494,904945	25,004	0,075331	22,350000	51,565000
3,115856	496,351386	25,104	0,075907	22,350000	51,565000
3,117833	498,595271	25,204	0,076800	22,350000	51,565000
3,119877	501,046492	25,305	0,077775	22,350000	51,565000
3,121838	502,052499	25,405	0,078176	22,350000	51,565000
3,123900	503,589726	25,505	0,078788	22,350000	51,565000
3,125883	507,445676	25,605	0,080322	22,350000	51,565000
3,127874	508,276245	25,705	0,080653	22,350000	51,565000
3,129834	510,022034	25,805	0,081348	22,350000	51,565000
3,131823	513,637524	25,906	0,082787	22,350000	51,565000
3,133847	513,503798	26,006	0,082733	22,350000	51,565000
3,135871	515,540348	26,106	0,083544	22,350000	51,565000
3,137885	517,651735	26,207	0,084384	22,350000	51,565000
3,139864	521,241461	26,308	0,085813	22,350000	51,565000
3,141879	521,607059	26,408	0,085958	22,350000	51,565000
3,143834	523,676733	26,508	0,086782	22,350000	51,565000
3,145843	525,762357	26,608	0,087612	22,350000	51,565000
3,147805	527,649232	26,708	0,088363	22,350000	51,565000
3,149847	529,360671	26,808	0,089044	22,350000	51,565000
3,151843	531,837655	26,908	0,090030	22,340000	51,555000
3,153800	532,943035	27,009	0,090470	22,340000	51,555000
3,155822	535,510806	27,110	0,091492	22,340000	51,555000
3,157839	537,364557	27,210	0,092230	22,340000	51,555000
3,159892	539,608443	27,310	0,093123	22,340000	51,555000
3,161885	541,868277	27,410	0,094022	22,340000	51,555000
3,163809	545,516891	27,510	0,095475	22,340000	51,555000
3,165801	545,840776	27,610	0,095604	22,340000	51,555000
3,167799	549,048956	27,710	0,096880	22,340000	51,555000
3,169797	551,284253	27,810	0,097770	22,340000	51,555000
3,171849	551,517352	27,910	0,097863	22,340000	51,555000
3,173889	553,261915	28,011	0,098557	22,340000	51,555000
3,175829	555,422376	28,111	0,099417	22,340000	51,555000
3,177847	557,309251	28,211	0,100168	22,340000	51,555000
3,179862	559,178951	28,312	0,100912	22,340000	51,555000
3,181884	563,443438	28,413	0,102609	22,340000	51,555000
3,183837	565,462812	28,513	0,103413	22,340000	51,555000
3,185827	567,482186	28,614	0,104217	22,340000	51,555000
3,187823	569,359247	28,714	0,104964	22,340000	51,555000
3,189873	571,197050	28,815	0,105695	22,340000	51,555000
3,191836	573,456884	28,915	0,106595	22,360000	51,560000
3,193846	573,324386	29,015	0,106542	22,360000	51,560000
3,195828	575,451721	29,115	0,107389	22,360000	51,560000
3,197810	577,304246	29,216	0,108126	22,360000	51,560000
3,199794	579,149409	29,316	0,108860	22,360000	51,560000
3,201831	581,417831	29,416	0,109763	22,360000	51,560000
3,203834	582,923161	29,516	0,110362	22,360000	51,560000
3,205823	586,180414	29,617	0,111659	22,360000	51,560000
3,207846	588,798485	29,717	0,112701	22,360000	51,560000
3,209845	591,000658	29,817	0,113577	22,360000	51,560000
3,211853	593,202831	29,917	0,114454	22,360000	51,560000
3,213798	595,065170	30,017	0,115195	22,360000	51,560000
3,215832	597,183918	30,118	0,116038	22,360000	51,560000
3,217814	599,194704	30,218	0,116838	22,360000	51,560000
3,219877	601,414053	30,318	0,117722	22,360000	51,560000
3,221792	601,214078	30,418	0,117642	22,360000	51,560000
3,223856	604,970654	30,518	0,119137	22,360000	51,560000
3,225849	605,802450	30,618	0,119468	22,360000	51,560000
3,227861	609,375000	30,720	0,120890	22,360000	51,560000
3,229894	610,248508	30,820	0,121238	22,360000	51,560000
3,231819	611,993071	30,921	0,121932	22,340000	51,595000
3,233820	615,633097	31,021	0,123381	22,340000	51,595000
3,235805	617,345762	31,121	0,124063	22,340000	51,595000
3,237813	618,658478	31,221	0,124585	22,340000	51,595000
3,239828	621,342798	31,321	0,125653	22,340000	51,595000
3,241834	622,140242	31,422	0,125971	22,340000	51,595000
3,243872	624,185380	31,523	0,126785	22,340000	51,595000
3,245867	626,096793	31,624	0,127545	22,340000	51,595000
3,247826	629,188423	31,724	0,128776	22,340000	51,595000
3,249826	629,569969	31,824	0,128928	22,340000	51,595000
3,251784	631,888692	31,924	0,129851	22,340000	51,595000
3,253772	633,209995	32,025	0,130376	22,340000	51,595000
3,255809	635,520130	32,125	0,131296	22,340000	51,595000
3,257776	637,573856	32,226	0,132113	22,340000	51,595000
3,259789	639,476680	32,326	0,132871	22,340000	51,595000
3,261784	641,296080	32,426	0,133595	22,340000	51,595000
3,263802	645,160618	32,526	0,135133	22,340000	51,595000
3,265791	645,285755	32,626	0,135183	22,340000	51,595000
3,267833	647,479340	32,726	0,136056	22,340000	51,595000
3,269869	649,324503	32,826	0,136790	22,340000	51,595000
3,271812	651,343878	32,926	0,137594	22,340000	51,595000
3,273774	655,199827	33,026	0,139128	22,340000	51,595000
3,275870	655,008441	33,127	0,139052	22,340000	51,595000
3,277805	657,252326	33,228	0,139945	22,340000	51,595000
3,279865	659,189502	33,328	0,140716	22,340000	51,595000
3,281838	661,125451	33,428	0,141487	22,340000	51,595000
3,283860	665,205912	33,528	0,143111	22,340000	51,595000
3,285844	667,209338	33,628	0,143908	22,340000	51,595000
3,287759	667,258411	33,728	0,143928	22,340000	51,595000
3,289854	671,605096	33,828	0,145658	22,340000	51,595000
3,291901	673,350885	33,928	0,146353	22,340000	51,595000
3,293786	675,269659	34,028	0,147116	22,340000	51,595000
3,295843	677,090285	34,128	0,147841	22,340000	51,595000
3,297764	679,275283	34,228	0,148710	22,340000	51,595000
3,299833	681,370721	34,329	0,149544	22,340000	51,595000
3,301790	683,064983	34,429	0,150219	22,340000	51,595000
3,303825	683,148408	34,529	0,150252	22,340000	51,595000
3,305785	685,176370	34,629	0,151059	22,340000	51,595000
3,307845	687,320882	34,729	0,151913	22,340000	51,595000
3,309792	688,941534	34,829	0,152558	22,340000	51,595000
3,311805	693,171669	34,929	0,154241	22,360000	51,570000
3,313802	692,714059	35,029	0,154059	22,360000	51,570000
3,315719	695,415554	35,130	0,155134	22,360000	51,570000
3,317796	697,111043	35,231	0,155809	22,360000	51,570000
3,319859	699,412590	35,331	0,156725	22,360000	51,570000
3,321787	700,892156	35,431	0,157314	22,360000	51,570000
3,323852	705,213077	35,531	0,159034	22,360000	51,570000
3,325765	707,091365	35,632	0,159781	22,360000	51,570000
